% Azimuth (deg) v (m/s) delta_v (m/s)
5.400000 1876.585584 9.096750
15.400000 1873.510131 9.076114
25.400000 1861.308467 8.994428
35.400000 1857.459380 8.968721
45.400000 1934.317797 9.487613
55.400000 1990.975301 9.877643
65.400000 1983.751380 9.827558
75.400000 1907.904719 9.307967
85.400000 1848.720964 8.910469
95.400000 1811.437626 8.663637
105.400000 1791.055405 8.529866
115.400000 1813.527545 8.677400
125.400000 1877.706436 9.104275
135.400000 1900.120882 9.255290
145.400000 1892.685129 9.205082
155.400000 1889.556724 9.183991
165.400000 1870.444742 9.055564
175.400000 1849.536697 8.915901
185.400000 1853.352985 8.941328
195.400000 1860.482320 8.988908
205.400000 1850.353149 8.921338
215.400000 1866.280795 9.027680
225.400000 1951.427685 9.604725
235.400000 2006.542205 9.985923
245.400000 1965.150805 9.699076
255.400000 1892.685129 9.205082
265.400000 1824.314522 8.748576
275.400000 1805.455851 8.624293
285.400000 1805.455851 8.624293
295.400000 1824.314522 8.748576
305.400000 1850.625460 8.923152
315.400000 1921.020471 9.396999
325.400000 1963.923161 9.690620
335.400000 1952.639752 9.613043
345.400000 1876.585584 9.096750
355.400000 1870.722999 9.057429
